# Analysis Created by 'NetAna'.
# AC Node Analysis of file:  /home/jim/MyPython/netana/netana/examples/ActiveBandPassFilter.txt
# Report file created:  /home/jim/MyPython/netana/netana/examples/ActiveBandPassFilter.report 
# Date Created: Sat Sep 10 15:55:04 2011
#


##### Units = Volts ####

# Frequency(HZ)	Magnitude(db)	Phase Angle(deg)
     50.00             -23.6227          +85.4279
     51.00             -23.3349          +85.2736
     52.00             -23.0466          +85.1138
     53.00             -22.7576          +84.9480
     54.00             -22.4675          +84.7760
     55.00             -22.1760          +84.5973
     56.00             -21.8830          +84.4113
     57.00             -21.5882          +84.2178
     58.00             -21.2912          +84.0159
     59.00             -20.9918          +83.8053
     60.00             -20.6896          +83.5851
     61.00             -20.3844          +83.3548
     62.00             -20.0758          +83.1133
     63.00             -19.7636          +82.8600
     64.00             -19.4473          +82.5938
     65.00             -19.1266          +82.3137
     66.00             -18.8011          +82.0183
     67.00             -18.4703          +81.7064
     68.00             -18.1339          +81.3765
     69.00             -17.7914          +81.0269
     70.00             -17.4422          +80.6557
     71.00             -17.0858          +80.2607
     72.00             -16.7217          +79.8395
     73.00             -16.3493          +79.3893
     74.00             -15.9677          +78.9071
     75.00             -15.5765          +78.3891
     76.00             -15.1746          +77.8311
     77.00             -14.7613          +77.2284
     78.00             -14.3356          +76.5754
     79.00             -13.8966          +75.8654
     80.00             -13.4430          +75.0907
     81.00             -12.9737          +74.2422
     82.00             -12.4873          +73.3090
     83.00             -11.9825          +72.2782
     84.00             -11.4576          +71.1341
     85.00             -10.9110          +69.8576
     86.00             -10.3410          +68.4258
     87.00              -9.7459          +66.8101
     88.00              -9.1240          +64.9755
     89.00              -8.4738          +62.8785
     90.00              -7.7946          +60.4650
     91.00              -7.0863          +57.6678
     92.00              -6.3510          +54.4038
     93.00              -5.5936          +50.5724
     94.00              -4.8237          +46.0554
     95.00              -4.0585          +40.7237
     96.00              -3.3256          +34.4546
     97.00              -2.6656          +27.1695
     98.00              -2.1310          +18.8921
     99.00              -1.7779           +9.8126
    100.00              -1.6500           +0.3097
    101.00              -1.7602           -9.1171
    102.00              -2.0851          -17.9913
    103.00              -2.5754          -25.9871
    104.00              -3.1746          -32.9689
    105.00              -3.8332          -38.9499
    106.00              -4.5146          -44.0270
    107.00              -5.1945          -48.3277
    108.00              -5.8582          -51.9790
    109.00              -6.4976          -55.0943
    110.00              -7.1089          -57.7690
    111.00              -7.6907          -60.0811
    112.00              -8.2432          -62.0936
    113.00              -8.7676          -63.8574
    114.00              -9.2651          -65.4132
    115.00              -9.7376          -66.7940
    116.00             -10.1867          -68.0265
    117.00             -10.6141          -69.1326
    118.00             -11.0214          -70.1300
    119.00             -11.4100          -71.0337
    120.00             -11.7813          -71.8560
    121.00             -12.1366          -72.6071
    122.00             -12.4769          -73.2957
    123.00             -12.8035          -73.9293
    124.00             -13.1171          -74.5141
    125.00             -13.4188          -75.0554
    126.00             -13.7092          -75.5579
    127.00             -13.9891          -76.0256
    128.00             -14.2593          -76.4620
    129.00             -14.5201          -76.8700
    130.00             -14.7724          -77.2524
    131.00             -15.0165          -77.6115
    132.00             -15.2529          -77.9494
    133.00             -15.4821          -78.2679
    134.00             -15.7044          -78.5686
    135.00             -15.9203          -78.8530
    136.00             -16.1300          -79.1224
    137.00             -16.3340          -79.3779
    138.00             -16.5324          -79.6207
    139.00             -16.7255          -79.8516
    140.00             -16.9137          -80.0714
    141.00             -17.0972          -80.2811
    142.00             -17.2761          -80.4812
    143.00             -17.4507          -80.6725
    144.00             -17.6211          -80.8555
    145.00             -17.7876          -81.0307
    146.00             -17.9504          -81.1987
    147.00             -18.1095          -81.3598
    148.00             -18.2652          -81.5145
    149.00             -18.4175          -81.6633
