# Analysis Created by 'NetAna'.
# AC Node Analysis of file: /home/jim/netana3.0/netana/examples/Wein_Bridge.txt
# Report file created: /home/jim/netana3.0/netana/examples/Wein_Bridge.report 
# Date Created: Tue Jul 29 16:16:00 2014
#


##### Units = Volts ####

# FrequencyHZ       Magnitude(db)    Phase Angle(deg)
    830.00             -9.6104             +7.1589
    840.00             -9.6020             +6.7007
    850.00             -9.5942             +6.2479
    860.00             -9.5870             +5.8006
    870.00             -9.5805             +5.3585
    880.00             -9.5745             +4.9216
    890.00             -9.5691             +4.4896
    900.00             -9.5643             +4.0625
    910.00             -9.5600             +3.6402
    920.00             -9.5562             +3.2226
    930.00             -9.5529             +2.8095
    940.00             -9.5501             +2.4008
    950.00             -9.5477             +1.9966
    960.00             -9.5458             +1.5965
    970.00             -9.5443             +1.2007
    980.00             -9.5433             +0.8089
    990.00             -9.5427             +0.4211
   1000.00             -9.5424             +0.0372
   1010.00             -9.5426             -0.3429
   1020.00             -9.5431             -0.7192
   1030.00             -9.5440             -1.0919
   1040.00             -9.5452             -1.4610
   1050.00             -9.5468             -1.8265
   1060.00             -9.5488             -2.1886
   1070.00             -9.5510             -2.5474
   1080.00             -9.5536             -2.9028
   1090.00             -9.5564             -3.2550
   1100.00             -9.5596             -3.6040
   1110.00             -9.5631             -3.9498
   1120.00             -9.5668             -4.2926
   1130.00             -9.5708             -4.6324
   1140.00             -9.5751             -4.9692
   1150.00             -9.5797             -5.3031
   1160.00             -9.5845             -5.6342
   1170.00             -9.5895             -5.9625
   1180.00             -9.5948             -6.2880
   1190.00             -9.6004             -6.6108
